DU=C:/disk2, USER=irb21, NAME=LMO_4MeAP_1, EXPNO=10, PROCNO=1
F1=10.500ppm, F2=-0.500ppm, MI=0.01cm, MAXI=10000.00cm, PC=1.000
     #     ADDRESS            FREQUENCY         INTENSITY
                           [Hz]        [PPM]
     1      6565.3     3193.487       7.9811         0.02
     2      6584.4     3186.475       7.9636         0.02
     3      6672.9     3154.110       7.8827         0.03
     4      6707.2     3141.531       7.8513         0.03
     5      6778.6     3115.436       7.7861         4.65
     6      6800.6     3107.377       7.7659         4.98
     7      6896.6     3072.255       7.6781         2.78
     8      6930.1     3059.978       7.6475         2.87
     9      6996.9     3035.538       7.5864         0.03
    10      7017.0     3028.192       7.5680         0.03
    11      7125.0     2988.658       7.4692         0.02
    12      7158.5     2976.412       7.4386         0.02
    13      7182.1     2967.757       7.4170         0.02
    14      7202.3     2960.373       7.3985         0.02
    15      7394.6     2890.004       7.2227         4.50
    16      7416.3     2882.074       7.2028         4.18
    17      7612.6     2810.258       7.0234         0.02
    18      7631.9     2803.184       7.0057         0.02
    19      8740.1     2397.688       5.9923         0.02
    20      8773.6     2385.405       5.9616         0.02
    21      8951.7     2320.231       5.7987         2.93
    22      8985.3     2307.953       5.7680         2.83
    23      9167.2     2241.377       5.6016         0.02
    24      9200.9     2229.063       5.5708         0.01
    25     11566.2     1363.552       3.4078         0.02
    26     11620.5     1343.664       3.3581         0.06
    27     11674.0     1324.115       3.3092        11.18
    28     11728.7     1304.077       3.2591         0.07
    29     11894.8     1243.300       3.1072         2.80
    30     12141.5     1153.036       2.8817         2.81
    31     12324.4     1086.118       2.7144         0.03
    32     12390.4     1061.960       2.6540         0.02
    33     12532.1     1010.117       2.5245         0.03
    34     12575.6      994.210       2.4847         1.45
    35     12641.4      970.106       2.4245         0.04
    36     12697.8      949.468       2.3729         0.10
    37     12750.9      930.064       2.3244        15.00
    38     12925.6      866.120       2.1646         0.08
    39     13031.2      827.497       2.0681         0.04
    40     13963.2      486.427       1.2157         0.04
